Measurement
Timestamp:	20210909-173915.332
Temperature (K):	299.2
Integration (s):	1.00
Repetitions:	1

Drive Position
X (µm):	0.00
Y (µm):	4.78
Z (µm):	0.00

CCD
Temp. (K):	140.23
ADC:	20 kHz
Gain:	Best Dynamic Range
X-Range (px):	1-2048
Y-Range (px):	1-512
Binning (px):	1/1

Monochromator
Grating:	600/500
Center (nm):	500.00
Entrance (µm):	0

Data
460.816079	996.000000
460.854523	988.000000
460.892966	998.000000
460.931409	994.000000
460.969852	995.000000
461.008295	992.000000
461.046737	992.000000
461.085179	993.000000
461.123621	991.000000
461.162063	992.000000
461.200504	991.000000
461.238945	996.000000
461.277386	993.000000
461.315827	992.000000
461.354267	995.000000
461.392707	989.000000
461.431147	992.000000
461.469586	993.000000
461.508026	994.000000
461.546465	991.000000
461.584904	992.000000
461.623342	995.000000
461.661780	993.000000
461.700218	993.000000
461.738656	993.000000
461.777094	993.000000
461.815531	994.000000
461.853968	992.000000
461.892405	994.000000
461.930841	993.000000
461.969277	993.000000
462.007713	994.000000
462.046149	997.000000
462.084585	993.000000
462.123020	994.000000
462.161455	993.000000
462.199889	993.000000
462.238324	994.000000
462.276758	994.000000
462.315192	993.000000
462.353626	991.000000
462.392059	993.000000
462.430492	992.000000
462.468925	995.000000
462.507358	993.000000
462.545790	994.000000
462.584222	991.000000
462.622654	992.000000
462.661086	993.000000
462.699517	993.000000
462.737948	991.000000
462.776379	990.000000
462.814809	991.000000
462.853240	993.000000
462.891670	993.000000
462.930100	994.000000
462.968529	994.000000
463.006958	992.000000
463.045387	994.000000
463.083816	990.000000
463.122245	994.000000
463.160673	994.000000
463.199101	996.000000
463.237529	993.000000
463.275956	993.000000
463.314383	992.000000
463.352810	994.000000
463.391237	992.000000
463.429663	992.000000
463.468090	996.000000
463.506516	993.000000
463.544941	993.000000
463.583367	993.000000
463.621792	993.000000
463.660217	996.000000
463.698641	993.000000
463.737066	994.000000
463.775490	995.000000
463.813914	990.000000
463.852337	995.000000
463.890761	995.000000
463.929184	992.000000
463.967606	989.000000
464.006029	991.000000
464.044451	990.000000
464.082873	993.000000
464.121295	995.000000
464.159716	996.000000
464.198138	994.000000
464.236559	995.000000
464.274979	993.000000
464.313400	992.000000
464.351820	993.000000
464.390240	992.000000
464.428660	994.000000
464.467079	996.000000
464.505498	993.000000
464.543917	993.000000
464.582336	992.000000
464.620754	993.000000
464.659172	994.000000
464.697590	992.000000
464.736008	992.000000
464.774425	994.000000
464.812842	992.000000
464.851259	992.000000
464.889676	994.000000
464.928092	992.000000
464.966508	992.000000
465.004924	994.000000
465.043339	995.000000
465.081754	991.000000
465.120169	994.000000
465.158584	995.000000
465.196999	992.000000
465.235413	992.000000
465.273827	993.000000
465.312240	993.000000
465.350654	992.000000
465.389067	993.000000
465.427480	993.000000
465.465892	993.000000
465.504305	993.000000
465.542717	994.000000
465.581129	992.000000
465.619540	994.000000
465.657951	990.000000
465.696363	994.000000
465.734773	992.000000
465.773184	992.000000
465.811594	995.000000
465.850004	995.000000
465.888414	994.000000
465.926823	994.000000
465.965232	994.000000
466.003641	994.000000
466.042050	993.000000
466.080459	991.000000
466.118867	994.000000
466.157275	994.000000
466.195682	992.000000
466.234090	993.000000
466.272497	994.000000
466.310903	994.000000
466.349310	993.000000
466.387716	995.000000
466.426122	993.000000
466.464528	992.000000
466.502934	991.000000
466.541339	990.000000
466.579744	993.000000
466.618149	992.000000
466.656553	995.000000
466.694957	993.000000
466.733361	991.000000
466.771765	989.000000
466.810168	995.000000
466.848571	994.000000
466.886974	994.000000
466.925377	994.000000
466.963779	993.000000
467.002181	992.000000
467.040583	993.000000
467.078985	992.000000
467.117386	994.000000
467.155787	992.000000
467.194188	994.000000
467.232588	995.000000
467.270988	992.000000
467.309388	993.000000
467.347788	990.000000
467.386187	993.000000
467.424586	994.000000
467.462985	993.000000
467.501384	991.000000
467.539782	993.000000
467.578180	993.000000
467.616578	994.000000
467.654976	994.000000
467.693373	994.000000
467.731770	990.000000
467.770167	993.000000
467.808563	996.000000
467.846960	994.000000
467.885356	991.000000
467.923751	990.000000
467.962147	994.000000
468.000542	993.000000
468.038937	993.000000
468.077331	996.000000
468.115726	991.000000
468.154120	990.000000
468.192514	992.000000
468.230907	994.000000
468.269300	994.000000
468.307693	994.000000
468.346086	994.000000
468.384479	995.000000
468.422871	991.000000
468.461263	993.000000
468.499655	992.000000
468.538046	992.000000
468.576437	991.000000
468.614828	992.000000
468.653219	993.000000
468.691609	992.000000
468.729999	993.000000
468.768389	992.000000
468.806778	994.000000
468.845168	994.000000
468.883557	990.000000
468.921945	994.000000
468.960334	993.000000
468.998722	992.000000
469.037110	989.000000
469.075498	991.000000
469.113885	994.000000
469.152272	994.000000
469.190659	993.000000
469.229046	991.000000
469.267432	994.000000
469.305818	994.000000
469.344204	991.000000
469.382589	997.000000
469.420975	996.000000
469.459360	992.000000
469.497744	997.000000
469.536129	993.000000
469.574513	992.000000
469.612897	993.000000
469.651281	994.000000
469.689664	992.000000
469.728047	994.000000
469.766430	994.000000
469.804812	993.000000
469.843195	993.000000
469.881577	996.000000
469.919958	992.000000
469.958340	997.000000
469.996721	999.000000
470.035102	992.000000
470.073483	991.000000
470.111863	993.000000
470.150243	993.000000
470.188623	993.000000
470.227003	992.000000
470.265382	993.000000
470.303761	992.000000
470.342140	991.000000
470.380518	994.000000
470.418897	992.000000
470.457274	991.000000
470.495652	992.000000
470.534030	992.000000
470.572407	993.000000
470.610784	992.000000
470.649160	995.000000
470.687537	993.000000
470.725913	994.000000
470.764288	994.000000
470.802664	993.000000
470.841039	994.000000
470.879414	992.000000
470.917789	993.000000
470.956163	992.000000
470.994537	992.000000
471.032911	991.000000
471.071285	995.000000
471.109658	993.000000
471.148031	992.000000
471.186404	993.000000
471.224777	991.000000
471.263149	994.000000
471.301521	996.000000
471.339893	991.000000
471.378264	994.000000
471.416635	994.000000
471.455006	991.000000
471.493377	993.000000
471.531747	992.000000
471.570117	994.000000
471.608487	993.000000
471.646857	995.000000
471.685226	990.000000
471.723595	995.000000
471.761964	991.000000
471.800332	990.000000
471.838700	992.000000
471.877068	994.000000
471.915436	991.000000
471.953803	994.000000
471.992170	992.000000
472.030537	993.000000
472.068904	994.000000
472.107270	992.000000
472.145636	996.000000
472.184001	993.000000
472.222367	991.000000
472.260732	990.000000
472.299097	992.000000
472.337462	992.000000
472.375826	992.000000
472.414190	992.000000
472.452554	993.000000
472.490917	991.000000
472.529281	992.000000
472.567644	993.000000
472.606006	993.000000
472.644369	991.000000
472.682731	994.000000
472.721093	996.000000
472.759454	993.000000
472.797816	994.000000
472.836177	993.000000
472.874537	994.000000
472.912898	993.000000
472.951258	991.000000
472.989618	994.000000
473.027978	993.000000
473.066337	994.000000
473.104696	993.000000
473.143055	991.000000
473.181414	991.000000
473.219772	992.000000
473.258130	992.000000
473.296488	992.000000
473.334845	996.000000
473.373202	993.000000
473.411559	993.000000
473.449916	991.000000
473.488272	993.000000
473.526629	995.000000
473.564984	992.000000
473.603340	995.000000
473.641695	993.000000
473.680050	993.000000
473.718405	992.000000
473.756759	995.000000
473.795113	991.000000
473.833467	993.000000
473.871821	993.000000
473.910174	994.000000
473.948527	994.000000
473.986880	996.000000
474.025233	995.000000
474.063585	996.000000
474.101937	992.000000
474.140288	992.000000
474.178640	994.000000
474.216991	993.000000
474.255342	991.000000
474.293692	993.000000
474.332043	993.000000
474.370393	994.000000
474.408742	996.000000
474.447092	992.000000
474.485441	993.000000
474.523790	992.000000
474.562139	991.000000
474.600487	991.000000
474.638835	993.000000
474.677183	991.000000
474.715530	994.000000
474.753878	991.000000
474.792224	994.000000
474.830571	995.000000
474.868918	995.000000
474.907264	994.000000
474.945610	991.000000
474.983955	994.000000
475.022300	991.000000
475.060645	989.000000
475.098990	992.000000
475.137335	994.000000
475.175679	994.000000
475.214023	995.000000
475.252366	995.000000
475.290710	992.000000
475.329053	994.000000
475.367395	992.000000
475.405738	988.000000
475.444080	995.000000
475.482422	994.000000
475.520764	994.000000
475.559105	992.000000
475.597446	993.000000
475.635787	994.000000
475.674128	992.000000
475.712468	992.000000
475.750808	995.000000
475.789148	993.000000
475.827487	993.000000
475.865826	991.000000
475.904165	994.000000
475.942504	990.000000
475.980842	997.000000
476.019180	992.000000
476.057518	993.000000
476.095855	993.000000
476.134192	996.000000
476.172529	993.000000
476.210866	994.000000
476.249202	994.000000
476.287538	1000.000000
476.325874	994.000000
476.364210	993.000000
476.402545	994.000000
476.440880	993.000000
476.479214	994.000000
476.517549	989.000000
476.555883	991.000000
476.594217	995.000000
476.632550	991.000000
476.670883	993.000000
476.709216	991.000000
476.747549	992.000000
476.785882	991.000000
476.824214	995.000000
476.862546	994.000000
476.900877	991.000000
476.939208	992.000000
476.977539	993.000000
477.015870	995.000000
477.054201	994.000000
477.092531	991.000000
477.130861	995.000000
477.169190	993.000000
477.207519	996.000000
477.245849	990.000000
477.284177	995.000000
477.322506	992.000000
477.360834	997.000000
477.399162	992.000000
477.437489	992.000000
477.475817	992.000000
477.514144	991.000000
477.552471	992.000000
477.590797	991.000000
477.629123	995.000000
477.667449	993.000000
477.705775	993.000000
477.744100	994.000000
477.782425	993.000000
477.820750	992.000000
477.859075	994.000000
477.897399	993.000000
477.935723	995.000000
477.974046	993.000000
478.012370	993.000000
478.050693	996.000000
478.089016	997.000000
478.127338	993.000000
478.165661	995.000000
478.203982	991.000000
478.242304	994.000000
478.280626	991.000000
478.318947	991.000000
478.357267	993.000000
478.395588	990.000000
478.433908	995.000000
478.472228	990.000000
478.510548	994.000000
478.548867	993.000000
478.587186	993.000000
478.625505	993.000000
478.663824	994.000000
478.702142	994.000000
478.740460	994.000000
478.778778	992.000000
478.817095	991.000000
478.855412	992.000000
478.893729	992.000000
478.932046	995.000000
478.970362	993.000000
479.008678	991.000000
479.046994	991.000000
479.085309	993.000000
479.123624	994.000000
479.161939	996.000000
479.200254	990.000000
479.238568	992.000000
479.276882	990.000000
479.315196	992.000000
479.353509	993.000000
479.391822	994.000000
479.430135	992.000000
479.468448	996.000000
479.506760	993.000000
479.545072	994.000000
479.583384	994.000000
479.621695	993.000000
479.660006	994.000000
479.698317	993.000000
479.736628	992.000000
479.774938	992.000000
479.813248	993.000000
479.851558	995.000000
479.889867	992.000000
479.928176	994.000000
479.966485	994.000000
480.004793	996.000000
480.043102	991.000000
480.081410	993.000000
480.119717	994.000000
480.158025	992.000000
480.196332	993.000000
480.234639	995.000000
480.272945	991.000000
480.311252	992.000000
480.349558	993.000000
480.387863	991.000000
480.426169	994.000000
480.464474	991.000000
480.502779	994.000000
480.541083	995.000000
480.579387	992.000000
480.617691	992.000000
480.655995	994.000000
480.694298	993.000000
480.732602	992.000000
480.770904	995.000000
480.809207	995.000000
480.847509	992.000000
480.885811	994.000000
480.924113	992.000000
480.962414	993.000000
481.000715	993.000000
481.039016	991.000000
481.077316	992.000000
481.115617	996.000000
481.153917	995.000000
481.192216	992.000000
481.230516	992.000000
481.268815	993.000000
481.307113	992.000000
481.345412	993.000000
481.383710	995.000000
481.422008	993.000000
481.460306	991.000000
481.498603	992.000000
481.536900	995.000000
481.575197	995.000000
481.613493	991.000000
481.651789	994.000000
481.690085	994.000000
481.728381	993.000000
481.766676	991.000000
481.804971	991.000000
481.843266	993.000000
481.881560	993.000000
481.919854	993.000000
481.958148	994.000000
481.996442	995.000000
482.034735	991.000000
482.073028	991.000000
482.111321	994.000000
482.149613	993.000000
482.187905	995.000000
482.226197	991.000000
482.264489	994.000000
482.302780	993.000000
482.341071	995.000000
482.379362	992.000000
482.417652	994.000000
482.455942	993.000000
482.494232	992.000000
482.532521	995.000000
482.570810	995.000000
482.609099	994.000000
482.647388	996.000000
482.685676	996.000000
482.723964	995.000000
482.762252	993.000000
482.800540	992.000000
482.838827	992.000000
482.877114	994.000000
482.915400	995.000000
482.953687	993.000000
482.991973	991.000000
483.030258	990.000000
483.068544	992.000000
483.106829	993.000000
483.145114	992.000000
483.183398	995.000000
483.221682	992.000000
483.259966	992.000000
483.298250	991.000000
483.336533	996.000000
483.374817	995.000000
483.413099	994.000000
483.451382	994.000000
483.489664	995.000000
483.527946	993.000000
483.566228	990.000000
483.604509	994.000000
483.642790	994.000000
483.681071	995.000000
483.719351	994.000000
483.757631	990.000000
483.795911	993.000000
483.834191	996.000000
483.872470	992.000000
483.910749	993.000000
483.949028	994.000000
483.987306	995.000000
484.025584	997.000000
484.063862	993.000000
484.102139	992.000000
484.140417	994.000000
484.178694	997.000000
484.216970	992.000000
484.255247	993.000000
484.293523	993.000000
484.331798	994.000000
484.370074	992.000000
484.408349	995.000000
484.446624	995.000000
484.484899	993.000000
484.523173	991.000000
484.561447	993.000000
484.599720	995.000000
484.637994	991.000000
484.676267	994.000000
484.714540	992.000000
484.752812	998.000000
484.791085	995.000000
484.829356	990.000000
484.867628	994.000000
484.905899	992.000000
484.944171	994.000000
484.982441	992.000000
485.020712	995.000000
485.058982	991.000000
485.097252	994.000000
485.135521	990.000000
485.173791	991.000000
485.212060	996.000000
485.250328	994.000000
485.288597	994.000000
485.326865	992.000000
485.365133	993.000000
485.403400	994.000000
485.441667	990.000000
485.479934	991.000000
485.518201	992.000000
485.556467	991.000000
485.594733	992.000000
485.632999	994.000000
485.671264	989.000000
485.709529	996.000000
485.747794	993.000000
485.786059	992.000000
485.824323	994.000000
485.862587	993.000000
485.900851	992.000000
485.939114	991.000000
485.977377	993.000000
486.015640	994.000000
486.053902	996.000000
486.092164	992.000000
486.130426	993.000000
486.168688	993.000000
486.206949	995.000000
486.245210	994.000000
486.283471	993.000000
486.321731	990.000000
486.359991	992.000000
486.398251	994.000000
486.436511	992.000000
486.474770	994.000000
486.513029	994.000000
486.551287	993.000000
486.589546	995.000000
486.627804	991.000000
486.666061	994.000000
486.704319	996.000000
486.742576	994.000000
486.780833	995.000000
486.819089	990.000000
486.857345	996.000000
486.895601	994.000000
486.933857	993.000000
486.972112	993.000000
487.010367	995.000000
487.048622	994.000000
487.086877	994.000000
487.125131	994.000000
487.163385	993.000000
487.201638	991.000000
487.239891	993.000000
487.278144	995.000000
487.316397	992.000000
487.354649	990.000000
487.392901	989.000000
487.431153	991.000000
487.469404	996.000000
487.507656	993.000000
487.545906	992.000000
487.584157	992.000000
487.622407	993.000000
487.660657	994.000000
487.698907	995.000000
487.737156	994.000000
487.775405	993.000000
487.813654	992.000000
487.851902	993.000000
487.890151	994.000000
487.928398	994.000000
487.966646	994.000000
488.004893	995.000000
488.043140	992.000000
488.081387	995.000000
488.119633	990.000000
488.157879	994.000000
488.196125	993.000000
488.234370	995.000000
488.272616	995.000000
488.310860	991.000000
488.349105	995.000000
488.387349	991.000000
488.425593	995.000000
488.463837	992.000000
488.502080	994.000000
488.540323	993.000000
488.578566	993.000000
488.616808	994.000000
488.655051	993.000000
488.693292	993.000000
488.731534	997.000000
488.769775	995.000000
488.808016	993.000000
488.846257	995.000000
488.884497	992.000000
488.922737	994.000000
488.960977	995.000000
488.999216	993.000000
489.037455	994.000000
489.075694	993.000000
489.113933	996.000000
489.152171	994.000000
489.190409	994.000000
489.228647	994.000000
489.266884	994.000000
489.305121	993.000000
489.343358	994.000000
489.381594	996.000000
489.419830	991.000000
489.458066	994.000000
489.496301	993.000000
489.534537	992.000000
489.572772	993.000000
489.611006	994.000000
489.649240	997.000000
489.687474	992.000000
489.725708	992.000000
489.763942	997.000000
489.802175	993.000000
489.840407	996.000000
489.878640	990.000000
489.916872	994.000000
489.955104	993.000000
489.993335	994.000000
490.031567	993.000000
490.069798	990.000000
490.108028	995.000000
490.146259	992.000000
490.184489	994.000000
490.222719	993.000000
490.260948	995.000000
490.299177	992.000000
490.337406	992.000000
490.375635	995.000000
490.413863	995.000000
490.452091	994.000000
490.490318	994.000000
490.528546	994.000000
490.566773	992.000000
490.604999	994.000000
490.643226	992.000000
490.681452	994.000000
490.719678	991.000000
490.757903	994.000000
490.796128	993.000000
490.834353	995.000000
490.872578	991.000000
490.910802	992.000000
490.949026	994.000000
490.987250	992.000000
491.025473	990.000000
491.063696	995.000000
491.101919	994.000000
491.140141	993.000000
491.178363	992.000000
491.216585	994.000000
491.254807	997.000000
491.293028	990.000000
491.331249	997.000000
491.369470	993.000000
491.407690	994.000000
491.445910	995.000000
491.484130	994.000000
491.522349	991.000000
491.560568	993.000000
491.598787	994.000000
491.637005	991.000000
491.675223	990.000000
491.713441	995.000000
491.751659	995.000000
491.789876	992.000000
491.828093	993.000000
491.866310	992.000000
491.904526	988.000000
491.942742	993.000000
491.980958	994.000000
492.019173	996.000000
492.057388	994.000000
492.095603	991.000000
492.133817	995.000000
492.172032	991.000000
492.210246	994.000000
492.248459	993.000000
492.286672	993.000000
492.324885	994.000000
492.363098	993.000000
492.401310	994.000000
492.439522	994.000000
492.477734	992.000000
492.515945	994.000000
492.554157	990.000000
492.592367	996.000000
492.630578	992.000000
492.668788	994.000000
492.706998	996.000000
492.745208	992.000000
492.783417	995.000000
492.821626	996.000000
492.859834	993.000000
492.898043	989.000000
492.936251	995.000000
492.974459	993.000000
493.012666	994.000000
493.050873	996.000000
493.089080	996.000000
493.127286	993.000000
493.165492	993.000000
493.203698	994.000000
493.241904	992.000000
493.280109	997.000000
493.318314	990.000000
493.356519	995.000000
493.394723	992.000000
493.432927	994.000000
493.471131	992.000000
493.509334	993.000000
493.547537	993.000000
493.585740	992.000000
493.623943	992.000000
493.662145	995.000000
493.700347	993.000000
493.738548	996.000000
493.776749	992.000000
493.814950	991.000000
493.853151	991.000000
493.891351	990.000000
493.929551	990.000000
493.967751	994.000000
494.005950	994.000000
494.044149	995.000000
494.082348	995.000000
494.120547	992.000000
494.158745	995.000000
494.196943	992.000000
494.235140	992.000000
494.273337	996.000000
494.311534	992.000000
494.349731	992.000000
494.387927	992.000000
494.426123	993.000000
494.464319	997.000000
494.502514	994.000000
494.540709	993.000000
494.578904	994.000000
494.617098	993.000000
494.655292	992.000000
494.693486	995.000000
494.731680	993.000000
494.769873	990.000000
494.808066	994.000000
494.846258	992.000000
494.884450	993.000000
494.922642	994.000000
494.960834	995.000000
494.999025	994.000000
495.037216	993.000000
495.075407	994.000000
495.113597	994.000000
495.151787	991.000000
495.189977	992.000000
495.228167	994.000000
495.266356	990.000000
495.304544	994.000000
495.342733	992.000000
495.380921	992.000000
495.419109	993.000000
495.457297	993.000000
495.495484	993.000000
495.533671	993.000000
495.571857	992.000000
495.610044	993.000000
495.648230	995.000000
495.686415	994.000000
495.724601	995.000000
495.762786	994.000000
495.800971	995.000000
495.839155	995.000000
495.877339	993.000000
495.915523	992.000000
495.953706	992.000000
495.991890	993.000000
496.030072	994.000000
496.068255	994.000000
496.106437	992.000000
496.144619	995.000000
496.182801	993.000000
496.220982	996.000000
496.259163	992.000000
496.297344	991.000000
496.335524	995.000000
496.373704	992.000000
496.411884	992.000000
496.450063	996.000000
496.488242	993.000000
496.526421	993.000000
496.564600	996.000000
496.602778	991.000000
496.640956	996.000000
496.679133	993.000000
496.717310	993.000000
496.755487	991.000000
496.793664	995.000000
496.831840	993.000000
496.870016	993.000000
496.908192	997.000000
496.946367	992.000000
496.984542	992.000000
497.022717	991.000000
497.060891	994.000000
497.099065	992.000000
497.137239	994.000000
497.175413	993.000000
497.213586	994.000000
497.251759	995.000000
497.289931	995.000000
497.328103	994.000000
497.366275	991.000000
497.404447	993.000000
497.442618	993.000000
497.480789	995.000000
497.518959	994.000000
497.557130	994.000000
497.595300	995.000000
497.633469	990.000000
497.671639	994.000000
497.709808	992.000000
497.747976	991.000000
497.786145	994.000000
497.824313	991.000000
497.862481	996.000000
497.900648	996.000000
497.938815	992.000000
497.976982	992.000000
498.015148	995.000000
498.053315	992.000000
498.091481	994.000000
498.129646	990.000000
498.167811	994.000000
498.205976	992.000000
498.244141	993.000000
498.282305	991.000000
498.320469	991.000000
498.358633	993.000000
498.396796	993.000000
498.434959	993.000000
498.473122	995.000000
498.511284	995.000000
498.549446	994.000000
498.587608	992.000000
498.625769	991.000000
498.663930	995.000000
498.702091	992.000000
498.740252	991.000000
498.778412	995.000000
498.816572	993.000000
498.854731	994.000000
498.892890	993.000000
498.931049	995.000000
498.969208	995.000000
499.007366	992.000000
499.045524	993.000000
499.083682	993.000000
499.121839	993.000000
499.159996	993.000000
499.198153	994.000000
499.236309	993.000000
499.274465	994.000000
499.312621	993.000000
499.350776	994.000000
499.388931	994.000000
499.427086	994.000000
499.465240	996.000000
499.503394	993.000000
499.541548	991.000000
499.579702	994.000000
499.617855	994.000000
499.656008	992.000000
499.694160	992.000000
499.732312	996.000000
499.770464	993.000000
499.808616	993.000000
499.846767	992.000000
499.884918	991.000000
499.923068	999.000000
499.961219	991.000000
499.999369	993.000000
500.037518	994.000000
500.075668	993.000000
500.113817	996.000000
500.151965	993.000000
500.190114	997.000000
500.228262	995.000000
500.266409	993.000000
500.304557	998.000000
500.342704	992.000000
500.380851	994.000000
500.418997	992.000000
500.457143	996.000000
500.495289	990.000000
500.533434	994.000000
500.571580	991.000000
500.609724	991.000000
500.647869	995.000000
500.686013	993.000000
500.724157	993.000000
500.762301	994.000000
500.800444	996.000000
500.838587	994.000000
500.876729	992.000000
500.914871	993.000000
500.953013	992.000000
500.991155	992.000000
501.029296	993.000000
501.067437	990.000000
501.105578	994.000000
501.143718	992.000000
501.181858	991.000000
501.219998	992.000000
501.258137	994.000000
501.296276	994.000000
501.334415	996.000000
501.372554	992.000000
501.410692	993.000000
501.448829	994.000000
501.486967	993.000000
501.525104	993.000000
501.563241	992.000000
501.601377	992.000000
501.639513	993.000000
501.677649	995.000000
501.715785	992.000000
501.753920	992.000000
501.792055	995.000000
501.830189	991.000000
501.868323	994.000000
501.906457	994.000000
501.944591	991.000000
501.982724	996.000000
502.020857	991.000000
502.058990	994.000000
502.097122	994.000000
502.135254	994.000000
502.173386	994.000000
502.211517	995.000000
502.249648	996.000000
502.287778	992.000000
502.325909	990.000000
502.364039	994.000000
502.402169	994.000000
502.440298	997.000000
502.478427	995.000000
502.516556	995.000000
502.554684	995.000000
502.592812	994.000000
502.630940	993.000000
502.669067	994.000000
502.707194	992.000000
502.745321	996.000000
502.783448	995.000000
502.821574	995.000000
502.859699	992.000000
502.897825	996.000000
502.935950	996.000000
502.974075	993.000000
503.012199	993.000000
503.050324	993.000000
503.088447	996.000000
503.126571	994.000000
503.164694	993.000000
503.202817	991.000000
503.240940	995.000000
503.279062	990.000000
503.317184	994.000000
503.355305	993.000000
503.393427	993.000000
503.431547	993.000000
503.469668	995.000000
503.507788	994.000000
503.545908	994.000000
503.584028	997.000000
503.622147	996.000000
503.660266	992.000000
503.698385	992.000000
503.736503	994.000000
503.774621	996.000000
503.812739	998.000000
503.850856	996.000000
503.888973	992.000000
503.927090	996.000000
503.965206	993.000000
504.003322	994.000000
504.041438	989.000000
504.079553	994.000000
504.117668	995.000000
504.155783	991.000000
504.193897	991.000000
504.232012	993.000000
504.270125	995.000000
504.308239	993.000000
504.346352	992.000000
504.384465	995.000000
504.422577	999.000000
504.460689	995.000000
504.498801	993.000000
504.536912	994.000000
504.575024	994.000000
504.613134	994.000000
504.651245	994.000000
504.689355	993.000000
504.727465	995.000000
504.765574	992.000000
504.803683	995.000000
504.841792	990.000000
504.879901	994.000000
504.918009	995.000000
504.956117	992.000000
504.994224	992.000000
505.032332	995.000000
505.070438	994.000000
505.108545	994.000000
505.146651	996.000000
505.184757	992.000000
505.222863	992.000000
505.260968	990.000000
505.299073	992.000000
505.337177	993.000000
505.375282	993.000000
505.413386	993.000000
505.451489	993.000000
505.489592	994.000000
505.527695	996.000000
505.565798	996.000000
505.603900	994.000000
505.642002	993.000000
505.680104	992.000000
505.718205	994.000000
505.756306	995.000000
505.794407	994.000000
505.832507	994.000000
505.870607	994.000000
505.908707	993.000000
505.946806	995.000000
505.984905	992.000000
506.023004	994.000000
506.061102	992.000000
506.099200	991.000000
506.137298	991.000000
506.175395	995.000000
506.213492	994.000000
506.251589	990.000000
506.289685	993.000000
506.327781	989.000000
506.365877	996.000000
506.403972	993.000000
506.442067	992.000000
506.480162	996.000000
506.518256	992.000000
506.556350	993.000000
506.594444	991.000000
506.632537	994.000000
506.670630	995.000000
506.708723	994.000000
506.746815	991.000000
506.784907	993.000000
506.822999	994.000000
506.861090	992.000000
506.899181	994.000000
506.937272	993.000000
506.975363	993.000000
507.013453	992.000000
507.051542	994.000000
507.089632	993.000000
507.127721	994.000000
507.165810	993.000000
507.203898	990.000000
507.241986	994.000000
507.280074	993.000000
507.318161	996.000000
507.356248	995.000000
507.394335	996.000000
507.432421	992.000000
507.470507	994.000000
507.508593	993.000000
507.546679	998.000000
507.584764	992.000000
507.622848	993.000000
507.660933	993.000000
507.699017	990.000000
507.737101	994.000000
507.775184	991.000000
507.813267	993.000000
507.851350	992.000000
507.889432	991.000000
507.927515	993.000000
507.965596	993.000000
508.003678	996.000000
508.041759	996.000000
508.079840	995.000000
508.117920	994.000000
508.156000	992.000000
508.194080	994.000000
508.232159	989.000000
508.270238	996.000000
508.308317	991.000000
508.346396	992.000000
508.384474	993.000000
508.422551	993.000000
508.460629	993.000000
508.498706	994.000000
508.536783	995.000000
508.574859	993.000000
508.612935	992.000000
508.651011	994.000000
508.689086	994.000000
508.727162	994.000000
508.765236	994.000000
508.803311	994.000000
508.841385	996.000000
508.879459	994.000000
508.917532	995.000000
508.955605	991.000000
508.993678	997.000000
509.031750	992.000000
509.069822	996.000000
509.107894	993.000000
509.145965	995.000000
509.184037	992.000000
509.222107	991.000000
509.260178	997.000000
509.298248	993.000000
509.336317	993.000000
509.374387	996.000000
509.412456	991.000000
509.450525	993.000000
509.488593	992.000000
509.526661	994.000000
509.564729	992.000000
509.602796	994.000000
509.640863	996.000000
509.678930	998.000000
509.716996	992.000000
509.755062	993.000000
509.793128	992.000000
509.831194	994.000000
509.869259	995.000000
509.907323	994.000000
509.945388	993.000000
509.983452	993.000000
510.021515	994.000000
510.059579	995.000000
510.097642	994.000000
510.135705	993.000000
510.173767	994.000000
510.211829	993.000000
510.249891	992.000000
510.287952	994.000000
510.326013	993.000000
510.364074	993.000000
510.402134	994.000000
510.440194	997.000000
510.478254	992.000000
510.516313	994.000000
510.554372	993.000000
510.592431	994.000000
510.630489	994.000000
510.668547	995.000000
510.706604	994.000000
510.744662	991.000000
510.782719	995.000000
510.820775	996.000000
510.858832	993.000000
510.896888	995.000000
510.934943	995.000000
510.972998	991.000000
511.011053	993.000000
511.049108	993.000000
511.087162	994.000000
511.125216	996.000000
511.163270	995.000000
511.201323	997.000000
511.239376	992.000000
511.277428	996.000000
511.315481	993.000000
511.353533	996.000000
511.391584	992.000000
511.429635	992.000000
511.467686	994.000000
511.505737	994.000000
511.543787	993.000000
511.581837	992.000000
511.619886	991.000000
511.657936	992.000000
511.695984	994.000000
511.734033	993.000000
511.772081	992.000000
511.810129	995.000000
511.848176	993.000000
511.886224	999.000000
511.924270	991.000000
511.962317	994.000000
512.000363	993.000000
512.038409	993.000000
512.076454	994.000000
512.114499	997.000000
512.152544	992.000000
512.190589	995.000000
512.228633	996.000000
512.266676	993.000000
512.304720	994.000000
512.342763	994.000000
512.380806	992.000000
512.418848	993.000000
512.456890	993.000000
512.494932	995.000000
512.532973	994.000000
512.571014	1000.000000
512.609055	990.000000
512.647095	992.000000
512.685135	993.000000
512.723175	994.000000
512.761214	995.000000
512.799253	995.000000
512.837292	994.000000
512.875330	993.000000
512.913368	994.000000
512.951406	994.000000
512.989443	992.000000
513.027480	992.000000
513.065517	994.000000
513.103553	994.000000
513.141589	993.000000
513.179624	994.000000
513.217660	993.000000
513.255695	992.000000
513.293729	993.000000
513.331763	991.000000
513.369797	995.000000
513.407831	996.000000
513.445864	996.000000
513.483897	992.000000
513.521929	995.000000
513.559961	994.000000
513.597993	989.000000
513.636025	993.000000
513.674056	991.000000
513.712087	992.000000
513.750117	993.000000
513.788147	992.000000
513.826177	993.000000
513.864206	990.000000
513.902235	991.000000
513.940264	991.000000
513.978293	995.000000
514.016321	994.000000
514.054348	992.000000
514.092376	992.000000
514.130403	990.000000
514.168429	993.000000
514.206456	993.000000
514.244482	992.000000
514.282507	994.000000
514.320533	994.000000
514.358558	993.000000
514.396582	996.000000
514.434607	989.000000
514.472631	992.000000
514.510654	994.000000
514.548677	994.000000
514.586700	997.000000
514.624723	992.000000
514.662745	992.000000
514.700767	993.000000
514.738789	992.000000
514.776810	997.000000
514.814831	994.000000
514.852851	990.000000
514.890871	994.000000
514.928891	994.000000
514.966911	991.000000
515.004930	996.000000
515.042948	994.000000
515.080967	993.000000
515.118985	995.000000
515.157003	995.000000
515.195020	993.000000
515.233037	990.000000
515.271054	995.000000
515.309070	995.000000
515.347086	992.000000
515.385102	994.000000
515.423117	996.000000
515.461132	994.000000
515.499147	995.000000
515.537161	993.000000
515.575175	994.000000
515.613189	992.000000
515.651202	996.000000
515.689215	995.000000
515.727228	995.000000
515.765240	992.000000
515.803252	992.000000
515.841263	994.000000
515.879274	994.000000
515.917285	991.000000
515.955296	992.000000
515.993306	992.000000
516.031316	994.000000
516.069325	993.000000
516.107334	995.000000
516.145343	992.000000
516.183351	996.000000
516.221360	997.000000
516.259367	992.000000
516.297375	994.000000
516.335382	999.000000
516.373388	996.000000
516.411395	994.000000
516.449401	994.000000
516.487406	993.000000
516.525412	993.000000
516.563417	995.000000
516.601421	994.000000
516.639426	996.000000
516.677429	993.000000
516.715433	996.000000
516.753436	996.000000
516.791439	996.000000
516.829442	993.000000
516.867444	993.000000
516.905446	995.000000
516.943447	993.000000
516.981448	995.000000
517.019449	995.000000
517.057450	991.000000
517.095450	994.000000
517.133449	996.000000
517.171449	995.000000
517.209448	990.000000
517.247447	991.000000
517.285445	994.000000
517.323443	994.000000
517.361441	992.000000
517.399438	994.000000
517.437435	995.000000
517.475431	993.000000
517.513428	993.000000
517.551424	992.000000
517.589419	996.000000
517.627414	994.000000
517.665409	993.000000
517.703404	994.000000
517.741398	994.000000
517.779392	990.000000
517.817385	992.000000
517.855378	993.000000
517.893371	992.000000
517.931364	994.000000
517.969356	994.000000
518.007347	995.000000
518.045339	992.000000
518.083330	993.000000
518.121321	992.000000
518.159311	994.000000
518.197301	991.000000
518.235290	993.000000
518.273280	992.000000
518.311269	992.000000
518.349257	995.000000
518.387246	993.000000
518.425233	993.000000
518.463221	993.000000
518.501208	994.000000
518.539195	991.000000
518.577181	993.000000
518.615168	992.000000
518.653153	993.000000
518.691139	992.000000
518.729124	994.000000
518.767109	990.000000
518.805093	995.000000
518.843077	990.000000
518.881061	996.000000
518.919044	991.000000
518.957027	992.000000
518.995010	996.000000
519.032992	994.000000
519.070974	993.000000
519.108956	995.000000
519.146937	996.000000
519.184918	994.000000
519.222898	993.000000
519.260878	993.000000
519.298858	993.000000
519.336838	994.000000
519.374817	994.000000
519.412796	994.000000
519.450774	994.000000
519.488752	994.000000
519.526730	997.000000
519.564707	991.000000
519.602684	990.000000
519.640661	996.000000
519.678637	993.000000
519.716613	993.000000
519.754589	993.000000
519.792564	996.000000
519.830539	994.000000
519.868513	995.000000
519.906488	992.000000
519.944461	992.000000
519.982435	994.000000
520.020408	993.000000
520.058381	993.000000
520.096353	991.000000
520.134325	997.000000
520.172297	997.000000
520.210268	995.000000
520.248239	996.000000
520.286210	994.000000
520.324180	994.000000
520.362150	993.000000
520.400120	994.000000
520.438089	996.000000
520.476058	991.000000
520.514027	994.000000
520.551995	992.000000
520.589963	989.000000
520.627930	994.000000
520.665897	993.000000
520.703864	995.000000
520.741831	992.000000
520.779797	994.000000
520.817762	995.000000
520.855728	998.000000
520.893693	994.000000
520.931657	993.000000
520.969622	992.000000
521.007586	994.000000
521.045549	993.000000
521.083513	994.000000
521.121475	992.000000
521.159438	993.000000
521.197400	994.000000
521.235362	995.000000
521.273323	995.000000
521.311285	994.000000
521.349245	993.000000
521.387206	995.000000
521.425166	991.000000
521.463126	991.000000
521.501085	995.000000
521.539044	994.000000
521.577003	995.000000
521.614961	993.000000
521.652919	993.000000
521.690876	995.000000
521.728834	993.000000
521.766790	992.000000
521.804747	997.000000
521.842703	995.000000
521.880659	993.000000
521.918614	995.000000
521.956569	996.000000
521.994524	993.000000
522.032478	992.000000
522.070432	995.000000
522.108386	995.000000
522.146339	993.000000
522.184292	992.000000
522.222245	993.000000
522.260197	994.000000
522.298149	995.000000
522.336101	990.000000
522.374052	993.000000
522.412003	992.000000
522.449953	992.000000
522.487903	995.000000
522.525853	991.000000
522.563802	996.000000
522.601751	991.000000
522.639700	994.000000
522.677648	995.000000
522.715596	993.000000
522.753544	991.000000
522.791491	996.000000
522.829438	994.000000
522.867385	994.000000
522.905331	993.000000
522.943277	998.000000
522.981222	996.000000
523.019167	992.000000
523.057112	991.000000
523.095056	995.000000
523.133000	993.000000
523.170944	991.000000
523.208887	995.000000
523.246830	992.000000
523.284773	993.000000
523.322715	991.000000
523.360657	998.000000
523.398598	993.000000
523.436540	997.000000
523.474480	994.000000
523.512421	990.000000
523.550361	996.000000
523.588301	993.000000
523.626240	990.000000
523.664179	994.000000
523.702118	995.000000
523.740056	990.000000
523.777994	991.000000
523.815932	992.000000
523.853869	995.000000
523.891806	993.000000
523.929742	996.000000
523.967678	996.000000
524.005614	993.000000
524.043550	996.000000
524.081485	993.000000
524.119419	992.000000
524.157354	995.000000
524.195288	992.000000
524.233221	994.000000
524.271155	994.000000
524.309088	994.000000
524.347020	994.000000
524.384952	992.000000
524.422884	993.000000
524.460816	994.000000
524.498747	991.000000
524.536678	995.000000
524.574608	992.000000
524.612538	994.000000
524.650468	992.000000
524.688397	996.000000
524.726326	995.000000
524.764255	994.000000
524.802183	996.000000
524.840111	993.000000
524.878038	995.000000
524.915965	994.000000
524.953892	996.000000
524.991819	993.000000
525.029745	996.000000
525.067670	991.000000
525.105596	996.000000
525.143521	996.000000
525.181445	993.000000
525.219370	994.000000
525.257294	997.000000
525.295217	993.000000
525.333140	997.000000
525.371063	991.000000
525.408986	993.000000
525.446908	995.000000
525.484829	994.000000
525.522751	991.000000
525.560672	993.000000
525.598593	996.000000
525.636513	993.000000
525.674433	993.000000
525.712352	994.000000
525.750272	995.000000
525.788190	992.000000
525.826109	992.000000
525.864027	994.000000
525.901945	998.000000
525.939862	994.000000
525.977779	994.000000
526.015696	993.000000
526.053612	993.000000
526.091528	994.000000
526.129444	995.000000
526.167359	994.000000
526.205274	994.000000
526.243188	995.000000
526.281103	995.000000
526.319016	993.000000
526.356930	998.000000
526.394843	995.000000
526.432756	994.000000
526.470668	995.000000
526.508580	993.000000
526.546491	992.000000
526.584403	996.000000
526.622314	993.000000
526.660224	994.000000
526.698134	993.000000
526.736044	993.000000
526.773953	991.000000
526.811863	994.000000
526.849771	995.000000
526.887680	993.000000
526.925588	996.000000
526.963495	990.000000
527.001402	993.000000
527.039309	991.000000
527.077216	993.000000
527.115122	991.000000
527.153028	992.000000
527.190933	994.000000
527.228838	996.000000
527.266743	995.000000
527.304647	992.000000
527.342551	995.000000
527.380455	996.000000
527.418358	993.000000
527.456261	996.000000
527.494163	993.000000
527.532066	993.000000
527.569967	993.000000
527.607869	993.000000
527.645770	995.000000
527.683671	990.000000
527.721571	993.000000
527.759471	993.000000
527.797370	995.000000
527.835270	994.000000
527.873169	992.000000
527.911067	993.000000
527.948965	996.000000
527.986863	993.000000
528.024760	995.000000
528.062657	996.000000
528.100554	994.000000
528.138450	991.000000
528.176346	993.000000
528.214242	993.000000
528.252137	992.000000
528.290032	990.000000
528.327926	994.000000
528.365821	995.000000
528.403714	997.000000
528.441608	992.000000
528.479501	994.000000
528.517393	994.000000
528.555286	994.000000
528.593177	993.000000
528.631069	996.000000
528.668960	993.000000
528.706851	993.000000
528.744741	995.000000
528.782632	992.000000
528.820521	996.000000
528.858411	994.000000
528.896300	990.000000
528.934188	995.000000
528.972076	994.000000
529.009964	993.000000
529.047852	993.000000
529.085739	995.000000
529.123626	995.000000
529.161512	993.000000
529.199398	993.000000
529.237284	994.000000
529.275169	991.000000
529.313054	995.000000
529.350939	992.000000
529.388823	992.000000
529.426707	996.000000
529.464590	998.000000
529.502473	992.000000
529.540356	994.000000
529.578239	992.000000
529.616121	992.000000
529.654002	996.000000
529.691883	993.000000
529.729764	991.000000
529.767645	991.000000
529.805525	995.000000
529.843405	995.000000
529.881284	991.000000
529.919163	994.000000
529.957042	992.000000
529.994920	992.000000
530.032798	994.000000
530.070676	995.000000
530.108553	991.000000
530.146430	991.000000
530.184306	992.000000
530.222182	995.000000
530.260058	997.000000
530.297934	995.000000
530.335809	992.000000
530.373683	995.000000
530.411557	993.000000
530.449431	993.000000
530.487305	991.000000
530.525178	995.000000
530.563051	994.000000
530.600923	993.000000
530.638795	992.000000
530.676667	995.000000
530.714538	992.000000
530.752409	990.000000
530.790280	993.000000
530.828150	995.000000
530.866020	994.000000
530.903889	995.000000
530.941758	995.000000
530.979627	992.000000
531.017495	994.000000
531.055363	991.000000
531.093231	993.000000
531.131098	993.000000
531.168965	995.000000
531.206832	995.000000
531.244698	992.000000
531.282563	997.000000
531.320429	993.000000
531.358294	996.000000
531.396158	994.000000
531.434023	997.000000
531.471887	992.000000
531.509750	994.000000
531.547613	993.000000
531.585476	993.000000
531.623338	994.000000
531.661201	993.000000
531.699062	991.000000
531.736923	994.000000
531.774784	991.000000
531.812645	992.000000
531.850505	992.000000
531.888365	992.000000
531.926224	994.000000
531.964083	994.000000
532.001942	993.000000
532.039801	994.000000
532.077658	991.000000
532.115516	993.000000
532.153373	994.000000
532.191230	992.000000
532.229087	993.000000
532.266943	995.000000
532.304798	992.000000
532.342654	995.000000
532.380509	995.000000
532.418363	995.000000
532.456218	993.000000
532.494071	994.000000
532.531925	993.000000
532.569778	993.000000
532.607631	992.000000
532.645483	992.000000
532.683335	990.000000
532.721187	994.000000
532.759038	996.000000
532.796889	994.000000
532.834739	992.000000
532.872589	995.000000
532.910439	997.000000
532.948289	995.000000
532.986138	993.000000
533.023986	998.000000
533.061835	991.000000
533.099682	996.000000
533.137530	992.000000
533.175377	993.000000
533.213224	992.000000
533.251070	996.000000
533.288916	994.000000
533.326762	992.000000
533.364607	996.000000
533.402452	990.000000
533.440297	995.000000
533.478141	994.000000
533.515985	995.000000
533.553828	994.000000
533.591671	993.000000
533.629514	993.000000
533.667356	996.000000
533.705198	995.000000
533.743039	993.000000
533.780881	993.000000
533.818721	992.000000
533.856562	991.000000
533.894402	992.000000
533.932241	994.000000
533.970081	993.000000
534.007920	993.000000
534.045758	992.000000
534.083596	991.000000
534.121434	997.000000
534.159271	992.000000
534.197108	993.000000
534.234945	993.000000
534.272781	993.000000
534.310617	991.000000
534.348453	997.000000
534.386288	993.000000
534.424123	990.000000
534.461957	995.000000
534.499791	994.000000
534.537625	994.000000
534.575458	995.000000
534.613291	992.000000
534.651124	994.000000
534.688956	993.000000
534.726787	993.000000
534.764619	996.000000
534.802450	993.000000
534.840281	995.000000
534.878111	993.000000
534.915941	995.000000
534.953770	994.000000
534.991599	994.000000
535.029428	993.000000
535.067256	994.000000
535.105084	993.000000
535.142912	996.000000
535.180739	996.000000
535.218566	997.000000
535.256393	993.000000
535.294219	995.000000
535.332045	994.000000
535.369870	993.000000
535.407695	995.000000
535.445520	996.000000
535.483344	992.000000
535.521168	992.000000
535.558991	995.000000
535.596814	993.000000
535.634637	994.000000
535.672459	995.000000
535.710281	992.000000
535.748103	992.000000
535.785924	994.000000
535.823745	993.000000
535.861565	994.000000
535.899385	994.000000
535.937205	992.000000
535.975024	991.000000
536.012843	995.000000
536.050662	990.000000
536.088480	994.000000
536.126298	994.000000
536.164115	994.000000
536.201932	994.000000
536.239749	992.000000
536.277565	996.000000
536.315381	995.000000
536.353197	992.000000
536.391012	995.000000
536.428827	996.000000
536.466641	992.000000
536.504455	993.000000
536.542269	995.000000
536.580082	995.000000
536.617895	993.000000
536.655708	990.000000
536.693520	993.000000
536.731331	994.000000
536.769143	995.000000
536.806954	994.000000
536.844764	992.000000
536.882575	996.000000
536.920384	995.000000
536.958194	993.000000
536.996003	991.000000
537.033812	992.000000
537.071620	995.000000
537.109428	994.000000
537.147236	993.000000
537.185043	991.000000
537.222850	994.000000
537.260656	992.000000
537.298462	994.000000
537.336268	996.000000
537.374073	992.000000
537.411878	994.000000
537.449682	993.000000
537.487487	995.000000
537.525290	994.000000
537.563094	994.000000
537.600897	995.000000
537.638699	994.000000
537.676502	994.000000
537.714304	994.000000
537.752105	995.000000
537.789906	991.000000
537.827707	995.000000
537.865507	995.000000
537.903307	991.000000
537.941107	995.000000
537.978906	993.000000
538.016705	994.000000
538.054503	993.000000
538.092301	991.000000
538.130099	994.000000
538.167896	995.000000
538.205693	993.000000
538.243490	994.000000
538.281286	993.000000
538.319081	993.000000
538.356877	991.000000
538.394672	995.000000
538.432466	993.000000
538.470261	996.000000
538.508055	992.000000
538.545848	993.000000
538.583641	995.000000
538.621434	992.000000
538.659226	993.000000
538.697018	994.000000
538.734810	993.000000
538.772601	995.000000
538.810392	991.000000
538.848182	994.000000
538.885972	995.000000
